#undulator wavenumber	set wavenumber	counts
1800.019620	1800.000000	2628.500	1798.561151
1798.031120	1798.000000	2703.500	1795.332136
1796.059589	1796.000000	2841.500	1795.332136
1794.080467	1794.000000	2809.000	1792.114695
1792.070696	1792.000000	2684.000	1788.908766
1790.043314	1790.000000	2724.500	1788.908766
1788.082857	1788.000000	2907.500	1785.714286
1786.038962	1786.000000	2866.500	1785.714286
1784.062753	1784.000000	2779.000	1782.531194
1782.073128	1782.000000	2928.500	1782.531194
1780.058151	1780.000000	2821.500	1779.359431
1778.079024	1778.000000	2864.500	1776.198934
1776.041835	1776.000000	2715.500	1776.198934
1774.085472	1774.000000	2858.000	1773.049645
1772.050511	1772.000000	2617.000	1773.049645
1770.059688	1770.000000	2704.000	1769.911504
1768.076460	1768.000000	2593.500	1766.784452
1766.076150	1766.000000	2558.500	1766.784452
1764.070713	1764.000000	2475.500	1763.668430
1762.052439	1762.000000	2477.500	1760.563380
1760.058293	1760.000000	2390.000	1760.563380
1758.059384	1758.000000	2367.500	1757.469244
1756.068402	1756.000000	2160.000	1754.385965
1754.091770	1754.000000	2168.500	1754.385965
1752.049284	1752.000000	2233.500	1751.313485
1750.101287	1750.000000	2185.000	1748.251748
1748.051578	1748.000000	2335.000	1748.251748
1746.073125	1746.000000	2042.500	1748.251748
1744.073290	1744.000000	2061.000	1745.200698
1742.039186	1742.000000	2099.000	1742.160279
1740.083698	1740.000000	2058.000	1742.160279
1738.055561	1738.000000	2103.000	1739.130435
1736.089109	1736.000000	1948.000	1736.111111
1734.064554	1734.000000	1969.500	1733.102253
1732.052815	1732.000000	1935.500	1730.103806
1730.064595	1730.000000	1960.000	1730.103806
1728.041816	1728.000000	2078.000	1727.115717
1726.090497	1726.000000	1973.000	1727.115717
1724.067779	1724.000000	2108.500	1721.170396
1722.068776	1722.000000	1941.500	1721.170396
1720.085351	1720.000000	1876.500	1718.213058
1718.051880	1718.000000	1925.500	1715.265866
1716.066501	1716.000000	1840.000	1715.265866
1714.054856	1714.000000	1933.500	1715.265866
1712.067853	1712.000000	1966.500	1712.328767
1710.054453	1710.000000	1992.000	1709.401709
1708.076709	1708.000000	1890.500	1706.484642
1706.072971	1706.000000	2146.500	1703.577513
1704.049537	1704.000000	1802.000	1703.577513
1702.088548	1702.000000	1775.500	1700.680272
1700.045935	1700.000000	1787.500	1697.792869
1698.092702	1698.000000	1812.000	1697.792869
1696.068581	1696.000000	1765.000	1697.792869
1694.083144	1694.000000	1710.500	1692.047377
1692.062265	1692.000000	1733.500	1692.047377
1690.057628	1690.000000	1697.500	1689.189189
1688.080531	1688.000000	1925.000	1689.189189
1686.043238	1686.000000	1904.000	1686.340641
1684.078920	1684.000000	1748.500	1683.501684
1682.045044	1682.000000	1588.000	1680.672269
1680.077888	1680.000000	1816.000	1677.852349
1678.072807	1678.000000	1821.500	1677.852349
1676.073068	1676.000000	1737.500	1675.041876
1674.053427	1674.000000	1743.000	1672.240803
1672.073595	1672.000000	1906.500	1672.240803
1670.014489	1670.000000	1678.500	1669.449082
1668.027499	1668.000000	1741.000	1666.666667
1666.071046	1666.000000	1812.000	1666.666667
1664.014505	1664.000000	1740.000	1663.893511
1662.041758	1662.000000	1828.500	1661.129568
1660.037859	1660.000000	1656.500	1658.374793
1658.048957	1658.000000	1703.500	1658.374793
1656.021759	1656.000000	1796.000	1655.629139
1654.062709	1654.000000	1830.500	1652.892562
1652.021496	1652.000000	1674.500	1650.165017
1650.065087	1650.000000	1849.000	1650.165017
1648.011995	1648.000000	1792.000	1650.165017
1646.041763	1646.000000	1813.500	1644.736842
1644.023531	1644.000000	1680.000	1644.736842
1642.051494	1642.000000	1735.500	1642.036125
1640.035766	1640.000000	1814.000	1639.344262
1637.983930	1638.000000	1756.000	1636.661211
1635.999314	1636.000000	1632.000	1633.986928
1633.966637	1634.000000	1632.000	1631.321370
1632.013046	1632.000000	1837.500	1628.664495
1629.909757	1630.000000	1565.500	1631.321370
1628.051722	1628.000000	1567.000	1626.016260
1625.841515	1626.000000	1617.500	1623.376623
1624.020695	1624.000000	1465.000	1620.745543
1621.872442	1622.000000	1607.500	1620.745543
1619.990685	1620.000000	1556.000	1618.122977
1617.897833	1618.000000	1512.000	1615.508885
1615.969397	1616.000000	1588.000	1612.903226
1613.903586	1614.000000	1576.500	1610.305958
1611.978678	1612.000000	1785.500	1610.305958
1609.901538	1610.000000	1610.000	1607.717042
1607.973232	1608.000000	1597.500	1607.717042
1605.971903	1606.000000	1595.000	1605.136437
1603.962686	1604.000000	1485.500	1602.564103
1601.977224	1602.000000	1454.000	1600.000000
1599.966721	1600.000000	1551.500	1600.000000
1597.970450	1598.000000	1439.000	1597.444089
1595.951645	1596.000000	1387.000	1594.896332
1593.988241	1594.000000	1684.000	1592.356688
1591.961233	1592.000000	1502.500	1589.825119
1589.962882	1590.000000	1394.500	1587.301587
1587.968786	1588.000000	1424.000	1587.301587
1585.974655	1586.000000	1462.500	1584.786054
1583.955168	1584.000000	1375.500	1582.278481
1581.957584	1582.000000	1436.500	1582.278481
1579.969526	1580.000000	1552.500	1579.778831
1577.949108	1578.000000	1535.000	1577.287066
1575.992465	1576.000000	1475.000	1577.287066
1573.976254	1574.000000	1501.000	1574.803150
1572.024256	1572.000000	1604.500	1572.327044
1569.985150	1570.000000	1771.000	1567.398119
1568.032705	1568.000000	1586.000	1567.398119
1565.985786	1566.000000	1545.500	1564.945227
1564.030551	1564.000000	1505.500	1562.500000
1561.977958	1562.000000	1488.500	1560.062402
1560.040012	1560.000000	1661.500	1557.632399
1557.989620	1558.000000	1684.500	1555.209953
1556.033950	1556.000000	1505.000	1555.209953
1554.013387	1554.000000	1521.000	1555.209953
1552.037569	1552.000000	1674.000	1550.387597
1550.009106	1550.000000	1641.500	1547.987616
1548.063581	1548.000000	1485.000	1547.987616
1545.992185	1546.000000	1532.000	1545.595054
1544.039321	1544.000000	1566.000	1543.209877
1542.023375	1542.000000	1540.000	1538.461538
1540.050397	1540.000000	1505.000	1536.098310
1538.019299	1538.000000	1643.000	1536.098310
1536.064097	1536.000000	1491.500	1533.742331
1534.010313	1534.000000	1593.000	1531.393568
1532.088522	1532.000000	1576.500	1529.051988
1530.014446	1530.000000	1443.000	1526.717557
1528.070424	1528.000000	1699.000	1526.717557
1526.034686	1526.000000	1485.500	1524.390244
1524.029913	1524.000000	1440.000	1522.070015
1522.017428	1522.000000	1503.500	1519.756839
1520.071942	1520.000000	1386.000	1517.450683
1518.031866	1518.000000	1412.500	1515.151515
1516.071495	1516.000000	1413.500	1515.151515
1514.018983	1514.000000	1434.500	1512.859304
1512.067127	1512.000000	1483.500	1510.574018
1510.040942	1510.000000	1454.500	1508.295626
1508.048379	1508.000000	1382.500	1506.024096
1506.046097	1506.000000	1367.000	1503.759398
1504.067450	1504.000000	1503.000	1501.501502
1502.029693	1502.000000	1400.500	1501.501502
1500.049202	1500.000000	1483.500	1499.250375
1498.035551	1498.000000	1428.500	1497.005988
1496.040281	1496.000000	1510.500	1494.768311
1494.043175	1494.000000	1494.500	1492.537313
1492.028242	1492.000000	1409.000	1490.312966
1490.044935	1490.000000	1452.000	1488.095238
1488.028365	1488.000000	1588.500	1488.095238
1486.069805	1486.000000	1522.500	1483.679525
1484.015080	1484.000000	1592.000	1483.679525
1482.052566	1482.000000	1549.500	1481.481481
1480.014623	1480.000000	1394.000	1479.289941
1478.050652	1478.000000	1509.500	1477.104874
1476.024346	1476.000000	1514.000	1474.926254
1474.030096	1474.000000	1598.500	1472.754050
1472.034076	1472.000000	1622.000	1470.588235
1470.049073	1470.000000	1651.000	1466.275660
1468.030839	1468.000000	1690.000	1466.275660
1466.049948	1466.000000	1678.000	1461.988304
1464.077826	1464.000000	1594.500	1461.988304
1462.045803	1462.000000	1607.500	1459.854015
1460.040729	1460.000000	1543.500	1459.854015
1458.044549	1458.000000	1659.000	1455.604076
1456.046400	1456.000000	1531.000	1453.488372
1454.057103	1454.000000	1673.500	1451.378810
1452.039498	1452.000000	1565.500	1449.275362
1450.051876	1450.000000	1417.500	1447.178003
1448.067800	1448.000000	1385.500	1445.086705
1446.026204	1446.000000	1519.500	1443.001443
1444.065217	1444.000000	1461.000	1443.001443
1442.054639	1442.000000	1569.000	1440.922190
1440.100876	1440.000000	1589.000	1438.848921
1438.060160	1438.000000	1654.500	1436.781609
1436.124211	1436.000000	1606.500	1434.720230
1433.949353	1434.000000	1500.000	1432.664756
1431.999431	1432.000000	1772.000	1430.615165
1429.986502	1430.000000	1561.500	1428.571429
1428.060387	1428.000000	1644.000	1426.533524
1426.017431	1426.000000	1718.500	1424.501425
1424.045000	1424.000000	1602.500	1422.475107
1421.985402	1422.000000	1569.500	1420.454545
1420.039426	1420.000000	1573.000	1418.439716
1417.971082	1418.000000	1513.000	1416.430595
1416.032862	1416.000000	1593.500	1414.427157
1413.980163	1414.000000	1583.000	1412.429379
1412.038874	1412.000000	1565.500	1410.437236
1410.026160	1410.000000	1568.000	1408.450704
1408.006488	1408.000000	1610.500	1406.469761
1406.001489	1406.000000	1656.000	1404.494382
1404.019145	1404.000000	1691.500	1404.494382
1402.043759	1402.000000	1722.500	1400.560224
1400.039621	1400.000000	1654.000	1398.601399
1398.050391	1398.000000	1587.000	1396.648045
1396.040884	1396.000000	1694.500	1396.648045
1394.035202	1394.000000	1755.500	1394.700139
1392.025393	1392.000000	1723.000	1390.820584
1390.057696	1390.000000	1681.000	1388.888889
1388.072432	1388.000000	1670.500	1386.962552
1386.039423	1386.000000	1705.500	1385.041551
1384.065038	1384.000000	1744.000	1383.125864
1382.048517	1382.000000	1652.500	1381.215470
1380.049480	1380.000000	1692.500	1377.410468
1378.057548	1378.000000	1769.000	1375.515818
1376.036895	1376.000000	1680.000	1373.626374
1374.042361	1374.000000	1674.500	1371.742112
1372.040988	1372.000000	1606.000	1369.863014
1370.027417	1370.000000	1780.500	1367.989056
1368.059237	1368.000000	1655.500	1366.120219
1366.043145	1366.000000	1656.500	1364.256480
1364.075224	1364.000000	1568.500	1362.397820
1362.059347	1362.000000	1778.500	1360.544218
1360.056263	1360.000000	1755.000	1358.695652
1358.062751	1358.000000	1625.000	1356.852103
1356.051720	1356.000000	1615.000	1355.013550
1354.075055	1354.000000	1698.500	1353.179973
1352.056248	1352.000000	1579.000	1351.351351
1350.069151	1350.000000	1614.000	1349.527665
1348.089158	1348.000000	1755.500	1347.708895
1346.069665	1346.000000	1537.500	1344.086022
1344.060007	1344.000000	1540.500	1344.086022
1342.057602	1342.000000	1735.000	1342.281879
1340.089888	1340.000000	1682.000	1342.281879
1338.046647	1338.000000	1761.000	1338.688086
1336.074067	1336.000000	1646.000	1336.898396
1334.014926	1334.000000	1684.500	1333.333333
1332.092888	1332.000000	1737.000	1331.557923
1330.017865	1330.000000	1668.500	1331.557923
1328.085624	1328.000000	1800.000	1328.021248
1326.025167	1326.000000	1856.000	1326.259947
1324.077151	1324.000000	1821.500	1324.503311
1322.058991	1322.000000	1637.500	1322.751323
1320.056382	1320.000000	1731.000	1321.003963
1318.080679	1318.000000	1709.000	1319.261214
1316.062557	1316.000000	1719.500	1315.789474
1314.073916	1314.000000	1647.000	1314.060447
1312.050992	1312.000000	1543.000	1312.335958
1310.085602	1310.000000	1628.000	1308.900524
1308.049949	1308.000000	1469.500	1307.189542
1306.093960	1306.000000	1355.000	1305.483029
1304.017626	1304.000000	1202.000	1305.483029
1302.093336	1302.000000	1245.000	1300.390117
1300.037467	1300.000000	995.500	1300.390117
1298.081086	1298.000000	873.000	1297.016861
1296.057006	1296.000000	822.000	1295.336788
1294.071213	1294.000000	831.000	1293.661061
1292.014870	1292.000000	881.000	1291.989664
1290.013643	1290.000000	858.500	1290.322581
1288.017113	1288.000000	870.500	1287.001287
1286.019973	1286.000000	1078.000	1285.347044
1283.999669	1284.000000	1018.500	1283.697047
1282.000988	1282.000000	1121.000	1282.051282
1279.984927	1280.000000	1336.500	1280.409731
1277.982056	1278.000000	1518.500	1277.139208
1276.003679	1276.000000	1627.000	1275.510204
1273.963249	1274.000000	1736.000	1273.885350
1272.019937	1272.000000	1777.000	1272.264631
1269.989153	1270.000000	1737.000	1270.648030
1268.019508	1268.000000	1748.000	1267.427123
1265.973580	1266.000000	1865.500	1265.822785
1264.061579	1264.000000	1716.500	1262.626263
1262.006095	1262.000000	1794.500	1261.034048
1260.067625	1260.000000	2010.000	1259.445844
1257.982845	1258.000000	1704.000	1257.861635
1256.054654	1256.000000	1846.500	1254.705144
1254.047281	1254.000000	1862.000	1254.705144
1252.064655	1252.000000	1779.000	1250.000000
1250.022657	1250.000000	1800.000	1250.000000
1248.061449	1248.000000	1871.500	1246.882793
1246.063219	1246.000000	1770.500	1245.330012
1244.039341	1244.000000	1887.500	1242.236025
1242.076792	1242.000000	1612.500	1240.694789
1239.995715	1240.000000	1806.500	1239.157373
1238.099695	1238.000000	1664.500	1237.623762
1236.040315	1236.000000	1753.000	1234.567901
1234.075947	1234.000000	1686.500	1233.045623
1232.038116	1232.000000	1846.000	1231.527094
1230.078570	1230.000000	1781.500	1228.501229

# Sect01 Ion Source 		# s01_ion_source 		# m03_ao09_bl0 		# 10.000000 		# None 	
# Sect01 Ion Source 		# s01_ion_source 		# m03_ao09_bl0 		# 10000 		# None 	
# Sect01 Ion Source 		# s01_ion_source 		# m03_ao09_high 		# -6.999939 		# None 	
# Sect01 Ion Source 		# s01_ion_source 		# m03_ao09_nc 		# 0 		# None 	
# Sect01 Ion Source 		# s01_ion_source 		# m03_ao09_width 		# 100000 		# None 	
# Sect01 Ion Source 		# s01_ion_source 		# m03_ao10_end 		# 0.000000 		# None 	
# Sect01 Ion Source 		# s01_ion_source 		# m03_ao11_bl1 		# 0.000000 		# None 	
# Sect01 Ion Source 		# s01_ion_source 		# m03_ao14_src_float 		# 0.000000 		# None 	
# Sect01 Ion Source 		# s01_ion_source 		# m03_ao00_nc 		# -6.000000 		# None 	
# Sect01 Ion Source 		# s01_ion_source 		# m03_ao01_bq0 		# -9.900055 		# None 	
# Sect01 Ion Source 		# s01_ion_source 		# m03_ao02_nc 		# 0.000000 		# None 	
# Sect01 Ion Source 		# s01_ion_source 		# m03_ao03_bq5 		# -9.590179 		# None 	
# Sect01 Ion Source 		# s01_ion_source 		# m03_ao04_nc 		# 0.000000 		# None 	
# Sect01 Ion Source 		# s01_ion_source 		# m03_ao05_bq4 		# 0.219940 		# None 	
# Sect01 Ion Source 		# s01_ion_source 		# m03_ao06_bq3 		# -0.200012 		# None 	
# Sect01 Ion Source 		# s01_ion_source 		# m03_ao07_bq2 		# -0.139893 		# None 	
# Sect01 Ion Source 		# s01_ion_source 		# m03_ao08_bq1 		# -0.050110 		# None 	
# Sect01 Ion Source 		# s01_ion_source 		# m03_ao15_qd1_float 		# -1.499969 		# None 	
# Sect01 Ion Source 		# s01_ion_source 		# m03_a_nc 		# 0.000000 		# None 	
# Sect01 Ion Source 		# s01_ion_source 		# m03_b_nc 		# 0.000000 		# None 	
# Sect01 Ion Source 		# s01_ion_source 		# m03_c_nc 		# 0.000000 		# None 	
# Sect01 Ion Source 		# s01_ion_source 		# m04_ao00_b_outer 		# -8.079620 		# None 	
# Sect01 Ion Source 		# s01_ion_source 		# m04_ao01_b_in 		# -3.000061 		# None 	
# Sect01 Ion Source 		# s01_ion_source 		# m04_ao02_b_inner 		# 0.500031 		# None 	
# Sect01 Ion Source 		# s01_ion_source 		# m04_ao06_b_out 		# 0.000000 		# None 	
# Sect01 Ion Source 		# s01_ion_source 		# m04_ao03_se_delay 		# 10000 		# None 	
# Sect01 Ion Source 		# s01_ion_source 		# m04_ao03_se_high 		# 0.699982 		# None 	
# Sect01 Ion Source 		# s01_ion_source 		# m04_ao03_se_trap_in 		# 0.699982 		# None 	
# Sect01 Ion Source 		# s01_ion_source 		# m04_ao03_se_width 		# 0 		# None 	
# Sect01 Ion Source 		# s01_ion_source 		# m04_ao04_sa_delay 		# 2630000 		# None 	
# Sect01 Ion Source 		# s01_ion_source 		# m04_ao04_sa_high 		# -0.499969 		# None 	
# Sect01 Ion Source 		# s01_ion_source 		# m04_ao04_sa_trap_out 		# 1.600006 		# None 	
# Sect01 Ion Source 		# s01_ion_source 		# m04_ao04_sa_width 		# 5000 		# None 	
# Sect01 Ion Source 		# s01_ion_source 		# m04_ao05_trap_float 		# 0.489929 		# None 	
# Sect01 Ion Source 		# s01_ion_source 		# m04_ao07_bl4 		# -2.699982 		# None 	
# Sect01 Ion Source 		# s01_ion_source 		# m04_ao08_bl5 		# -5.820038 		# None 	
# Sect01 Ion Source 		# s01_ion_source 		# m03_ao13_reso 		# 2.000000 		# None 	
# Sect01 Ion Source 		# s01_ion_source 		# m04_ao09_qd2_float 		# -3.000000 		# None 	
# Sect01 Ion Source 		# s01_ion_source 		# m03_ao02_nc1 		# 0.000000 		# None 	
# Sect01 Ion Source 		# s01_ion_source 		# m03_ao02_nc2 		# 0 		# None 	
# Sect01 Ion Source 		# s01_ion_source 		# m03_ao02_nc3 		# 0.000000 		# None 	
# Sect01 Ion Source 		# s01_ion_source 		# m03_ao02_nc4 		# 0 		# None 	
# Sect01 Ion Source 		# s01_ion_source 		# m03_ao04_nc1 		# 0.000000 		# None 	
# Sect01 Ion Source 		# s01_ion_source 		# m03_ao04_nc2 		# 0 		# None 	
# Sect01 Ion Source 		# s01_ion_source 		# m03_ao04_nc3 		# 0.000610 		# None 	
# Sect01 Ion Source 		# s01_ion_source 		# m03_ao04_nc4 		# 0 		# None 	
# Ortec 996 Gate 		# test_ao00 		# m03_ao00_nc1 		# 0.000000 		# None 	
# Ortec 996 Gate 		# test_ao00 		# m03_ao00_nc2 		# 0 		# None 	
# Ortec 996 Gate 		# test_ao00 		# m03_ao00_nc3 		# 0.000610 		# None 	
# Ortec 996 Gate 		# test_ao00 		# m03_ao00_nc4 		# 0 		# None 	
