#Noise/Signal corrected for 16_11_18-2.cfelix data file!
#Wavelength(cm-1)	#Counts	SA
550.09655	11157.5	552.486188
552.089172	10956.5	556.173526
554.123577	11092.0	556.173526
556.081114	11325.0	554.01662
558.127625	11913.0	562.429696
560.098922	11945.0	562.429696
562.116359	12089.5	564.334086
564.095237	12254.0	566.572238
566.114086	11894.0	566.572238
568.115	12670.5	573.065903
570.060231	12265.0	565.291125
572.114488	12565.0	577.700751
574.106631	12432.0	573.723465
576.109776	13017.0	579.374276
578.104957	12929.5	579.038796
580.073119	13225.0	579.710145
582.113413	12584.5	578.368999
584.101266	12623.0	585.480094
586.091475	13262.5	580.383053
588.109612	12586.0	588.928151
590.079048	12439.5	590.318772
592.097687	12654.5	593.11981
594.093052	12543.0	597.728631
596.075652	12293.0	597.014925
598.109949	12272.0	599.520384
600.079667	11964.0	602.04696
602.112065	11448.5	604.229607
604.084007	11279.5	604.594921
606.073095	10799.5	610.500611
608.098991	10539.5	609.384522
610.101028	10480.5	611.246944
612.091975	10448.0	613.873542
614.087134	10711.5	615.00615
616.117131	11089.0	618.811881
618.081046	11293.5	619.578686
620.042297	11159.5	620.732464
622.106969	11249.5	625.0
624.11629	11533.5	619.195046
626.122991	11636.0	626.566416
628.076042	11948.5	616.903146
630.093002	12039.5	636.942675
632.100663	12207.0	634.115409
634.07882	12022.5	635.324015
636.098892	11320.5	639.386189
638.102803	10992.5	639.795266
640.106145	11108.0	641.436818
642.097656	11857.0	645.577792
644.074881	11273.0	645.577792
646.09208	11468.0	648.508431
648.09276	11349.5	650.618087
650.09953	11998.5	652.741514
652.087384	11729.0	653.167864
654.081185	11910.0	657.462196
656.076455	11903.5	653.167864
658.095976	11573.5	660.066007
660.080297	11810.5	660.938533
662.107264	11882.0	665.335995
664.078223	11851.0	664.893617
666.082601	12084.5	668.002672
668.092956	12075.5	669.792364
670.074577	12629.5	672.94751
672.094412	11987.0	675.675676
674.090016	11746.5	676.132522
676.08681	11829.0	678.426052
678.0871	11619.0	680.272109
680.095515	11845.5	679.809653
682.095764	12282.5	683.994528
684.090123	11756.0	686.341798
686.092507	11513.0	681.19891
688.088987	11539.5	689.179876
690.084072	11720.5	692.041522
692.070738	11550.0	693.481276
694.081979	12029.0	696.37883
696.101262	11999.5	697.35007
698.08369	11920.0	699.790063
700.085922	11650.0	699.790063
702.089073	11809.0	703.23488
704.085923	11613.0	697.836706
706.081252	12087.5	706.713781
708.098852	11896.0	708.215297
710.081474	11847.0	701.754386
712.079184	12337.5	712.758375
714.089595	12426.0	714.796283
716.083955	12027.5	717.360115
718.074223	11954.5	717.360115
720.086785	12430.0	720.461095
722.109774	12496.0	723.065799
724.08748	12293.5	724.112962
726.092391	12050.5	726.744186
728.095502	12512.5	728.862974
730.08219	12185.0	729.927007
732.081518	12198.0	732.600733
734.071672	12022.5	734.753857
736.079341	11574.5	735.294118
738.068005	11433.0	737.463127
740.07911	11708.5	735.294118
742.068659	10538.0	741.839763
744.088035	9809.5	742.942051
746.061151	9484.0	747.384155
748.086283	8647.5	747.943156
750.074839	7737.0	749.625187
752.088418	6247.0	751.314801
754.087531	4469.5	754.147813
756.084438	4155.0	755.287009
758.076662	4715.0	758.725341
760.086519	5864.0	758.725341
762.079184	6221.0	761.035008
764.07958	6199.5	764.525994
766.075129	6574.5	764.525994
768.083312	7177.0	766.871166
770.079219	7901.5	769.822941
772.075213	8907.5	771.010023
774.076368	9600.5	773.395205
776.082624	10093.5	775.193798
778.073878	10552.0	777.604977
780.095337	10634.5	779.423227
782.086649	10662.5	780.640125
784.093134	11233.0	782.472613
786.089486	11120.0	784.929356
788.078267	11538.0	787.401575
790.074515	11610.5	789.265983
792.093513	11401.5	790.513834
794.082056	10935.0	793.021412
796.085679	11554.5	794.91256
798.089183	11012.0	796.812749
800.077319	11343.5	799.360512
802.085679	11210.5	801.282051
804.075958	11034.0	802.568218
806.081336	11072.5	805.152979
808.091648	10629.0	806.451613
810.083859	10641.0	809.061489
812.091127	10302.0	811.030008
814.075098	9996.0	812.347685
816.102352	9992.5	814.995925
818.083105	9320.0	816.326531
820.104636	9469.5	819.000819
822.069204	9577.0	814.332248
824.095294	9322.0	823.045267
826.077072	9703.5	825.763832
828.099812	9131.0	827.129859
830.083349	9095.5	828.500414
832.09753	9009.5	830.564784
834.077539	8547.5	831.946755
836.103833	8486.5	834.724541
838.077621	8506.0	835.421888
840.09773	8230.5	838.926174
842.080869	7535.0	841.042893
844.102534	7704.5	829.875519
846.092407	7934.5	843.881857
848.086864	7431.5	846.023689
850.072898	7882.0	847.457627
852.097515	7492.0	850.340136
854.061331	7434.5	851.788756
856.108311	7636.5	853.970965
858.049742	7700.5	854.700855
860.090239	7448.5	859.106529
862.056481	7913.0	859.845228
864.095568	7568.5	861.326443
866.076136	7809.0	863.557858
868.100694	7882.5	865.800866
870.047981	7614.5	867.302689
872.092161	7790.5	869.565217
874.074759	8320.0	872.600349
876.096248	8074.0	874.890639
878.085163	8170.0	875.656743
880.099705	8592.0	877.963126
882.070912	8540.5	880.28169
884.10232	8736.5	881.834215
886.095679	9068.5	883.392226
888.093394	9043.5	886.524823
890.090155	9349.5	887.311446
892.09663	9455.0	889.679715
894.086192	9568.0	892.06066
896.074691	9570.5	892.857143
898.099639	9825.5	895.255148
900.080854	9790.5	896.860987
902.095731	9491.5	899.280576
904.082784	9471.0	900.900901
906.087558	9394.0	903.342367
908.077907	9075.5	905.797101
910.085881	9103.5	906.618314
912.063157	8796.5	910.746812
914.095833	8582.0	910.746812
916.086982	8295.5	912.408759
918.095928	7260.0	902.527076
920.057747	6345.5	916.590284
922.072347	5317.5	918.273646
924.056081	4553.0	920.810313
926.084475	4041.0	922.509225
928.081912	3485.5	925.06938
930.07544	3560.5	925.925926
932.073121	3630.5	928.505107
934.058636	3842.5	931.098696
936.061829	4360.5	931.966449
938.0746	5160.0	933.706816
940.07245	6189.0	935.453695
942.063562	7310.0	938.967136
944.085854	8203.0	940.733772
946.074241	8671.0	942.507069
948.061224	8921.5	944.287063
950.060362	9311.0	946.969697
952.085353	9943.5	946.969697
954.062647	9922.0	949.667616
956.101188	10347.0	951.474786
958.045465	10214.0	952.380952
960.072873	10256.5	956.022945
962.068802	10691.5	956.937799
964.052228	10878.5	958.772771
966.064287	10852.5	962.463908
968.083075	10672.5	963.391137
970.094791	10620.5	965.250965
972.069337	10969.5	967.117988
974.088847	10896.5	969.932105
976.079417	10949.5	971.817298
978.082157	10752.0	973.709834
980.039247	11050.5	974.658869
982.077093	11269.0	977.517107
984.069393	11334.5	979.431929
986.071056	10790.5	979.431929
988.057156	10911.5	982.318271
990.06921	11454.5	985.221675
992.085046	10882.0	986.193294
994.068888	11241.0	989.119683
996.067525	11050.0	991.080278
998.053297	11135.5	994.035785
1000.081607	10870.5	995.024876
1002.077708	11039.5	997.008973
1004.091371	11098.0	1000.0
1006.034092	11360.5	1001.001001
1008.066345	10969.5	1003.009027
1010.057955	11659.0	1005.025126
1012.072712	11690.5	1006.036217
1014.060558	11454.0	1009.081736
1016.035582	11471.5	1011.122346
1018.086303	11775.5	1014.198783
1020.054683	11702.0	1015.228426
1022.057221	11689.5	1017.293998
1024.043937	11598.5	1019.367992
1026.075977	12038.5	1021.45046
1028.039362	11762.0	1023.541453
1030.059187	11761.0	1025.641026
1032.085367	11690.5	1028.806584
1034.067883	11391.0	1028.806584
1036.073381	11422.0	1030.927835
1038.057363	11084.0	1033.057851
1040.055988	11245.0	1035.196687
1042.07503	11241.5	1036.26943
1044.058431	10961.5	1038.421599
1046.028606	11464.5	1039.50104
1048.063676	11427.5	1042.752868
1050.040742	11552.0	1043.841336
1052.071655	11664.0	1046.025105
1054.050108	11638.0	1048.218029
1056.074047	11583.0	1049.317943
1058.065021	11449.0	1053.74078
1060.062168	11701.5	1054.852321
1062.051642	11240.5	1055.966209
1064.047238	11931.5	1058.201058
1066.105014	11709.5	1060.445387
1068.045841	11442.0	1061.571125
1070.107676	11498.5	1063.829787
1072.055188	11212.5	1067.235859
1074.053635	11107.0	1068.376068
1076.044263	11264.5	1070.663812
1078.069015	11239.0	1072.961373
1080.029774	10842.5	1075.268817
1082.069683	10679.5	1076.426265
1084.107205	10901.5	1079.913607
1086.063824	10490.0	1081.081081
1088.08837	10218.0	1082.251082
1090.071163	9971.5	1084.598698
1092.060003	9924.5	1086.956522
1094.049291	10047.0	1086.956522
1096.075513	9423.0	1090.512541
1098.051617	9334.0	1094.091904
1100.05047	9526.0	1094.091904
1102.055521	9606.0	1097.694841
1104.05802	9436.5	1098.901099
1106.066465	9210.5	1100.110011
1108.05841	8662.5	1102.535832
1110.050766	8991.0	1104.972376
1112.034841	8967.5	1107.419712
1114.064372	8751.5	1108.64745
1116.077283	8698.0	1109.877913
1118.062353	8343.0	1111.111111
1120.067419	8081.0	1114.827202
1122.044563	8190.0	1117.318436
1124.044492	7876.0	1122.334456
1126.06158	7694.0	1121.076233
1128.061997	7859.5	1123.595506
1130.059829	7758.0	1124.859393
1132.069106	7662.0	1127.395716
1134.022267	7726.0	1127.395716
1136.057288	7419.5	1131.221719
1138.072685	7534.0	1128.668172
1140.043256	7360.0	1135.07378
1142.053398	7192.0	1137.656428
1144.07771	7180.0	1138.952164
1146.093843	7259.0	1141.552511
1148.064765	7166.5	1142.857143
1150.07541	7422.5	1144.16476
1152.04387	7666.0	1146.788991
1154.105384	7441.5	1150.747986
1156.042902	7140.5	1150.747986
1158.087516	7010.0	1153.402537
1160.061854	6959.5	1153.402537
1162.064272	7235.5	1156.069364
1164.052747	7049.0	1157.407407
1166.086247	7341.5	1158.748552
1168.088795	7008.0	1162.790698
1170.037721	7178.0	1164.144354
1172.071185	7075.0	1165.501166
1174.079196	6983.5	1169.590643
1176.070309	7009.0	1172.332943
1178.066938	7176.0	1173.70892
1180.06075	6963.5	1176.470588
1182.074036	7084.5	1176.470588
1184.039526	7359.5	1179.245283
1186.092168	6906.0	1183.431953
1188.071336	6853.5	1183.431953
1190.053297	7074.5	1184.834123
1192.071722	7151.5	1186.23962
1194.089876	6969.5	1190.47619
1196.062944	6995.0	1191.895113
1198.072397	7026.5	1193.317422
1200.081558	6902.0	1196.172249
1202.068134	7079.0	1199.040767
1204.079711	6955.5	1199.040767
1206.012212	7146.5	1201.923077
1208.096567	6885.0	1203.369434
1210.065275	7179.5	1204.819277
1212.098439	6987.0	1207.729469
1214.074916	6679.5	1209.189843
1216.070863	6828.0	1210.653753
1218.080653	6828.5	1212.121212
1220.09293	6827.0	1215.066829
1222.090807	6603.5	1218.026797
1224.046092	6359.5	1218.026797
1226.085358	6416.5	1221.001221
1228.059791	6465.5	1223.990208
1230.106714	6283.0	1226.993865
1232.071815	6572.5	1228.501229
1234.123769	6784.0	1230.0123
1236.082484	6503.0	1230.0123
1238.108126	7202.0	1236.093943
1240.043535	7151.5	1234.567901
1242.085277	6634.5	1237.623762
1244.045067	6865.0	1239.157373
1246.082938	6951.0	1240.694789
1248.083879	7117.0	1240.694789
1250.042189	7413.0	1245.330012
1252.089895	7513.0	1245.330012
1254.036115	7269.5	1250.0
1256.099462	7382.0	1250.0
1258.005317	7473.5	1253.132832
1260.064767	7624.5	1254.705144
1262.006095	7677.5	1254.705144
1264.11479	7157.0	1262.626263
1266.054841	6774.5	1261.034048
1268.095083	7245.0	1264.222503
1270.014476	6928.0	1265.822785
1272.112172	6484.0	1267.427123
1273.988405	6475.5	1272.264631
1276.053992	6539.5	1270.64803
1278.043469	5861.5	1273.88535
1279.973786	5413.0	1275.510204
1282.087608	4967.5	1277.139208
1284.058199	4511.0	1278.772379
1286.111933	3827.5	1280.409731
1288.025574	3303.0	1282.051282
1290.094525	2735.0	1285.347044
1291.936918	2695.5	1287.001287
1294.065687	2451.5	1288.659794
1298.11445	2470.0	1291.989664
1300.020904	2596.5	1295.336788
1302.037728	2670.0	1297.016861
1304.039903	2813.0	1298.701299
1306.180113	3280.0	1300.390117
1307.966629	3895.5	1302.083333
1309.84965	4105.0	1305.483029
1311.959415	4742.0	1308.900524
1315.929378	5793.5	1308.900524
1315.932148	5344.0	1312.335958
1317.95595	5726.0	1312.335958
1319.962291	5713.5	1315.789474
1322.006383	5835.5	1319.261214
1324.160082	6226.0	1319.261214
1325.950441	6134.0	1322.751323
1327.925137	6210.0	1324.503311
1329.92677	6381.0	1322.751323
1331.965848	6604.5	1326.259947
1333.965277	6631.5	1329.787234
1336.016232	6539.5	1331.557923
1338.162494	7029.5	1335.113485
1339.954854	7158.5	1335.113485
1341.826199	7208.0	1336.898396
1343.944402	7486.5	1340.482574
1345.923823	7381.0	1342.281879
1347.932339	7348.5	1344.086022
1349.948135	7335.5	1347.708895
1351.982033	7577.0	1347.708895
1354.119061	7399.0	1349.527665
1355.980375	7495.5	1353.179973
1357.774727	7232.0	1353.179973
1359.91921	7348.0	1355.01355
1361.905938	7124.5	1358.695652
1363.899968	7027.0	1358.695652
1365.911786	7112.0	1360.544218
1367.881459	7120.0	1364.25648
1369.909928	6783.0	1366.120219
1371.87723	6698.5	1367.989056
1373.889451	6701.5	1369.863014
1375.881458	6786.0	1371.742112
1377.896718	6671.0	1371.742112
1379.896944	6601.0	1377.410468
1381.890573	6809.5	1375.515818
1383.888247	6461.5	1377.410468
1385.821988	6331.0	1381.21547
1387.944701	6272.5	1383.125864
1389.924769	6464.0	1386.962552
1393.899571	6182.5	1386.962552
1393.902291	6325.5	1392.75766
1395.916164	6496.5	1392.75766
1397.882516	6457.5	1394.700139
1399.925944	6311.5	1398.601399
1401.873351	6612.0	1398.601399
1403.900288	6656.5	1398.601399
1405.896132	6388.0	1400.560224
1407.914705	6756.0	1404.494382
1409.893959	6544.0	1408.450704
1411.923041	6537.0	1408.450704
1413.869808	6374.5	1410.437236
1415.903742	7024.5	1410.437236
1419.902518	7372.5	1416.430595
1421.910186	7134.0	1418.439716
1423.844063	7130.5	1420.454545
1425.888721	7093.0	1422.475107
1427.918462	7091.5	1422.475107
1429.879564	7150.0	1426.533524
1431.946116	7230.5	1428.571429
1433.927969	6895.0	1428.571429
1435.9215	6931.5	1432.664756
1437.828166	6881.5	1432.664756
1440.052764	6949.5	1436.781609
1442.073147	6670.5	1436.781609
1444.11047	6477.5	1438.848921
1446.07409	6640.5	1440.92219
1448.08101	6818.0	1443.001443
1450.049352	6989.0	1445.086705
1452.071336	6544.5	1447.178003
1454.025389	6776.5	1449.275362
1456.0517	6762.0	1451.37881
1458.05773	7231.5	1455.604076
1460.035613	7187.5	1455.604076
1462.040459	6912.0	1457.725948
1464.011808	6749.5	1459.854015
1466.052527	7173.5	1459.854015
1468.022865	6727.0	1464.128843
1470.054476	6620.0	1464.128843
1472.023675	6756.5	1466.27566
1474.072248	6709.0	1468.428781
1476.026961	6698.0	1472.75405
1478.068785	6544.0	1472.75405
1480.017251	6651.0	1479.289941
1482.054982	6812.0	1477.104874
1484.030716	6784.0	1479.289941
1486.074884	6948.0	1483.679525
1488.002459	6940.5	1485.884101
1490.024065	6986.0	1485.884101
1492.038483	6983.5	1488.095238
1494.024872	6830.0	1488.095238
1496.045428	6814.5	1494.768311
1498.045874	7292.0	1494.768311
1500.051677	6939.5	1497.005988
1502.014126	6870.5	1499.250375
1504.080344	6975.5	1499.250375
1506.017746	7432.0	1501.501502
1508.063844	6988.0	1506.024096
1510.027945	7059.0	1503.759398
1512.077416	7424.0	1508.295626
1514.006147	7100.5	1508.295626
1516.091952	7142.0	1510.574018
1518.013891	6777.0	1512.859304
1520.059003	6910.5	1515.151515
1522.027621	7113.5	1517.450683
1524.060573	6954.5	1519.756839
1526.042371	6976.0	1522.070015
1528.037268	6953.5	1524.390244
1530.014446	6683.0	1524.390244
1532.070682	6496.0	1524.390244
1534.007724	6879.5	1526.717557
1536.051356	6989.5	1531.393568
1538.026868	6961.0	1536.09831
1540.065576	6907.5	1536.09831
1542.023375	6859.0	1540.832049
1544.056963	7099.5	1543.209877
1546.004853	7050.5	1540.832049
1548.03099	7056.5	1543.209877
1550.024242	7119.0	1550.387597
1552.010109	7424.5	1555.209953
1554.005901	7505.0	1552.795031
1556.003927	7437.5	1555.209953
1557.932094	7682.5	1555.209953
1559.663119	7437.5	1557.632399
1562.142416	7484.5	1562.5
1563.938335	7579.5	1560.062402
1566.000746	7864.5	1562.5
1568.007873	7787.0	1567.398119
1570.0273	7766.5	1567.398119
1571.967419	7857.0	1569.858713
1574.010939	7899.5	1572.327044
1575.948008	7603.0	1574.80315
1577.986209	7408.0	1577.287066
1579.996736	7304.0	1577.287066
1582.038922	7432.5	1579.778831
1583.974988	7740.0	1582.278481
1586.023454	7319.5	1582.278481
1587.971308	7372.5	1584.786054
1590.031141	7663.0	1587.301587
1591.995447	7443.5	1592.356688
1594.010347	7690.5	1592.356688
1595.998003	7950.5	1592.356688
1597.958193	8486.0	1592.356688
1599.957249	8363.0	1594.896332
1601.962596	8531.5	1602.564103
1604.006423	8840.0	1602.564103
1606.017813	8965.0	1602.564103
1607.965992	9647.0	1605.136437
1609.993293	9783.5	1605.136437
1611.983615	9542.5	1610.305958
1614.009082	9482.0	1610.305958
1616.0292	9314.5	1612.903226
1618.022178	9875.5	1615.508885
1620.045536	9562.0	1615.508885
1622.010817	9747.0	1620.745543
1624.023069	9535.5	1618.122977
1626.0271	9656.0	1623.376623
1628.025747	10198.0	1628.664495
1630.05668	9927.5	1628.664495
1632.022634	10111.0	1633.986928
1634.025643	10432.5	1631.32137
1636.067835	10564.0	1633.986928
1638.040543	10417.0	1639.344262
1640.052442	10501.5	1642.036125
1642.013746	10710.5	1642.036125
1644.079751	10847.0	1639.344262
1646.050976	10843.0	1642.036125
1648.044587	10967.0	1644.736842
1650.067265	10566.0	1647.446458
1652.049334	10810.5	1650.165017
1654.048756	10422.5	1655.629139
1656.056588	10303.0	1655.629139
1658.03961	10425.5	1658.374793
1660.065692	10296.5	1658.374793
1662.051151	10471.0	1661.129568
1664.069886	10691.0	1663.893511
1666.059666	10838.5	1663.893511
1668.075635	11339.0	1666.666667
1670.060508	11480.0	1669.449082
1672.055423	11379.0	1672.240803
1674.051185	11520.0	1675.041876
1676.045538	11553.5	1675.041876
1678.065767	11892.0	1680.672269
1680.045993	11784.5	1677.852349
1682.076732	11651.0	1680.672269
1684.060769	11483.0	1683.501684
1686.054609	11824.0	1686.340641
1688.062579	12004.0	1686.340641
1690.041632	11929.5	1689.189189
1692.071141	11906.5	1689.189189
1694.069655	12208.0	1692.047377
1696.055348	11320.0	1697.792869
1698.063579	11546.0	1697.792869
1700.072525	11296.5	1697.792869
1702.064212	10796.5	1697.792869
1704.038503	11256.5	1700.680272
1706.0753	11417.5	1703.577513
1708.083419	11337.0	1706.484642
1710.072292	11052.5	1712.328767
1712.067853	11208.5	1709.401709
1714.068077	11192.0	1709.401709
1716.092711	10845.0	1715.265866
1718.032104	11359.5	1715.265866
1720.080913	11436.5	1718.213058
1722.049204	11290.5	1721.170396
1724.072238	11684.0	1721.170396
1726.083942	11587.5	1721.170396
1728.041816	12466.0	1724.137931
1730.084051	12386.5	1727.115717
1732.048615	12057.0	1730.103806
1734.070868	11895.0	1736.111111
1736.076148	11670.0	1736.111111
1738.068248	11290.0	1739.130435
1740.062503	11003.5	1739.130435
1742.067105	11528.0	1739.130435
1744.052302	11133.0	1742.160279
1746.081662	11527.0	1748.251748
1748.068384	10992.0	1745.200698
1750.086279	11011.0	1748.251748
1752.080903	11257.5	1751.313485
1754.074847	11315.0	1751.313485
1756.066243	11184.5	1754.385965
1758.07391	11459.0	1754.385965
1760.07719	12179.0	1757.469244
1762.041882	12109.5	1760.56338
1764.079115	12418.0	1763.66843
1766.057436	12442.5	1763.66843
1768.066144	12527.5	1766.784452
1770.076294	12419.5	1769.911504
1772.062757	12306.5	1773.049645
1774.065015	12530.5	1776.198934
1776.05603	12658.0	1776.198934
1778.060687	12263.5	1776.198934
1780.099027	12485.0	1782.531194
1782.055027	12881.0	1782.531194
1784.082806	13342.5	1785.714286
1786.065439	12613.0	1788.908766
1788.066871	13103.0	1788.908766
1790.08529	12317.0	1792.114695
1792.034407	12544.0	1792.114695
1794.068558	12495.0	1795.332136
1796.059589	12456.0	1798.561151
1798.060863	12686.0	1801.801802
1799.999856	12704.0	1798.561151

# Sect01 Ion Source 		# s01_ion_source 		# m03_ao09_bl0 		# 10.000000 		# None 	
# Sect01 Ion Source 		# s01_ion_source 		# m03_ao09_bl0 		# 10000 		# None 	
# Sect01 Ion Source 		# s01_ion_source 		# m03_ao09_high 		# -6.999939 		# None 	
# Sect01 Ion Source 		# s01_ion_source 		# m03_ao09_nc 		# 0 		# None 	
# Sect01 Ion Source 		# s01_ion_source 		# m03_ao09_width 		# 100000 		# None 	
# Sect01 Ion Source 		# s01_ion_source 		# m03_ao10_end 		# 0.000000 		# None 	
# Sect01 Ion Source 		# s01_ion_source 		# m03_ao11_bl1 		# 0.000000 		# None 	
# Sect01 Ion Source 		# s01_ion_source 		# m03_ao14_src_float 		# 0.000000 		# None 	
# Sect01 Ion Source 		# s01_ion_source 		# m03_ao00_nc 		# -6.000000 		# None 	
# Sect01 Ion Source 		# s01_ion_source 		# m03_ao01_bq0 		# -9.900055 		# None 	
# Sect01 Ion Source 		# s01_ion_source 		# m03_ao02_nc 		# 0.000000 		# None 	
# Sect01 Ion Source 		# s01_ion_source 		# m03_ao03_bq5 		# -9.590179 		# None 	
# Sect01 Ion Source 		# s01_ion_source 		# m03_ao04_nc 		# 0.000000 		# None 	
# Sect01 Ion Source 		# s01_ion_source 		# m03_ao05_bq4 		# 0.219940 		# None 	
# Sect01 Ion Source 		# s01_ion_source 		# m03_ao06_bq3 		# -0.200012 		# None 	
# Sect01 Ion Source 		# s01_ion_source 		# m03_ao07_bq2 		# -0.139893 		# None 	
# Sect01 Ion Source 		# s01_ion_source 		# m03_ao08_bq1 		# -0.050110 		# None 	
# Sect01 Ion Source 		# s01_ion_source 		# m03_ao15_qd1_float 		# -1.499969 		# None 	
# Sect01 Ion Source 		# s01_ion_source 		# m03_a_nc 		# 0.000000 		# None 	
# Sect01 Ion Source 		# s01_ion_source 		# m03_b_nc 		# 0.000000 		# None 	
# Sect01 Ion Source 		# s01_ion_source 		# m03_c_nc 		# 0.000000 		# None 	
# Sect01 Ion Source 		# s01_ion_source 		# m04_ao00_b_outer 		# -8.079620 		# None 	
# Sect01 Ion Source 		# s01_ion_source 		# m04_ao01_b_in 		# -3.000061 		# None 	
# Sect01 Ion Source 		# s01_ion_source 		# m04_ao02_b_inner 		# 0.500031 		# None 	
# Sect01 Ion Source 		# s01_ion_source 		# m04_ao06_b_out 		# 0.000000 		# None 	
# Sect01 Ion Source 		# s01_ion_source 		# m04_ao03_se_delay 		# 10000 		# None 	
# Sect01 Ion Source 		# s01_ion_source 		# m04_ao03_se_high 		# 0.699982 		# None 	
# Sect01 Ion Source 		# s01_ion_source 		# m04_ao03_se_trap_in 		# 0.699982 		# None 	
# Sect01 Ion Source 		# s01_ion_source 		# m04_ao03_se_width 		# 0 		# None 	
# Sect01 Ion Source 		# s01_ion_source 		# m04_ao04_sa_delay 		# 1630000 		# None 	
# Sect01 Ion Source 		# s01_ion_source 		# m04_ao04_sa_high 		# -0.499969 		# None 	
# Sect01 Ion Source 		# s01_ion_source 		# m04_ao04_sa_trap_out 		# 1.600006 		# None 	
# Sect01 Ion Source 		# s01_ion_source 		# m04_ao04_sa_width 		# 5000 		# None 	
# Sect01 Ion Source 		# s01_ion_source 		# m04_ao05_trap_float 		# 0.489929 		# None 	
# Sect01 Ion Source 		# s01_ion_source 		# m04_ao07_bl4 		# -2.699982 		# None 	
# Sect01 Ion Source 		# s01_ion_source 		# m04_ao08_bl5 		# -5.820038 		# None 	
# Sect01 Ion Source 		# s01_ion_source 		# m03_ao13_reso 		# 2.000000 		# None 	
# Sect01 Ion Source 		# s01_ion_source 		# m04_ao09_qd2_float 		# -3.000000 		# None 	
# Sect01 Ion Source 		# s01_ion_source 		# m03_ao02_nc1 		# 0.000000 		# None 	
# Sect01 Ion Source 		# s01_ion_source 		# m03_ao02_nc2 		# 0 		# None 	
# Sect01 Ion Source 		# s01_ion_source 		# m03_ao02_nc3 		# 0.000000 		# None 	
# Sect01 Ion Source 		# s01_ion_source 		# m03_ao02_nc4 		# 0 		# None 	
# Sect01 Ion Source 		# s01_ion_source 		# m03_ao04_nc1 		# 0.000000 		# None 	
# Sect01 Ion Source 		# s01_ion_source 		# m03_ao04_nc2 		# 0 		# None 	
# Sect01 Ion Source 		# s01_ion_source 		# m03_ao04_nc3 		# 0.000610 		# None 	
# Sect01 Ion Source 		# s01_ion_source 		# m03_ao04_nc4 		# 0 		# None 	
# Ortec 996 Gate 		# test_ao00 		# m03_ao00_nc1 		# 0.000000 		# None 	
# Ortec 996 Gate 		# test_ao00 		# m03_ao00_nc2 		# 0 		# None 	
# Ortec 996 Gate 		# test_ao00 		# m03_ao00_nc3 		# 0.000610 		# None 	
# Ortec 996 Gate 		# test_ao00 		# m03_ao00_nc4 		# 0 		# None 	
